仪器类型:WGD-3型组合式多功能光栅光谱仪
样品名称:
操作人:
备注:
保存时间:2025年04月07日  03:13:37 PM
采集模式:0    //0,3--能量   1--透过率   2--吸光度
数据模式:0    //0--波长扫描    1--定点扫描
起始波长(nm):400.0
终止波长(nm):700.0
扫描间隔(nm):1.0
最大值:1000.0
最小值:0.0
增益:2
负高压:3
采集次数:23
数据段数:2
段1:    起点(nm):200.0     终点(nm):220.0
段2:    起点(nm):400.0     终点(nm):700.0


 波长(nm)    数值(e)
  200.0      203.4
  201.0      203.5
  202.0      203.6
  203.0      203.8
  204.0      203.9
  205.0      204.1
  206.0      204.2
  207.0      204.3
  208.0      204.4
  209.0      204.4
  210.0      204.5
  211.0      204.6
  212.0      204.6
  213.0      204.7
  214.0      204.7
  215.0      204.8
  216.0      204.8
  217.0      204.8
  218.0      204.9
  219.0      204.9
  220.0      204.9
  400.0      87.1
  401.0      89.1
  402.0      91.6
  403.0      94.5
  404.0      97.6
  405.0      100.8
  406.0      104.1
  407.0      107.3
  408.0      110.7
  409.0      114.1
  410.0      117.6
  411.0      121.1
  412.0      124.5
  413.0      127.8
  414.0      132.0
  415.0      138.2
  416.0      145.7
  417.0      152.9
  418.0      159.3
  419.0      164.9
  420.0      169.9
  421.0      174.3
  422.0      178.2
  423.0      181.8
  424.0      185.4
  425.0      189.0
  426.0      192.4
  427.0      195.8
  428.0      199.1
  429.0      202.2
  430.0      205.1
  431.0      207.8
  432.0      210.5
  433.0      212.9
  434.0      215.4
  435.0      217.9
  436.0      220.4
  437.0      222.8
  438.0      225.1
  439.0      227.4
  440.0      229.5
  441.0      231.5
  442.0      233.3
  443.0      234.9
  444.0      236.3
  445.0      237.6
  446.0      238.9
  447.0      240.0
  448.0      241.0
  449.0      242.0
  450.0      242.9
  451.0      243.8
  452.0      244.7
  453.0      245.4
  454.0      245.9
  455.0      246.4
  456.0      246.9
  457.0      247.3
  458.0      247.6
  459.0      247.7
  460.0      247.8
  461.0      247.7
  462.0      247.5
  463.0      247.2
  464.0      246.6
  465.0      245.9
  466.0      244.9
  467.0      243.7
  468.0      242.1
  469.0      240.2
  470.0      238.2
  471.0      236.2
  472.0      233.9
  473.0      231.4
  474.0      228.6
  475.0      225.7
  476.0      222.5
  477.0      218.9
  478.0      215.0
  479.0      210.9
  480.0      206.6
  481.0      202.2
  482.0      197.6
  483.0      192.8
  484.0      187.7
  485.0      182.5
  486.0      177.3
  487.0      172.2
  488.0      167.0
  489.0      161.8
  490.0      156.9
  491.0      152.2
  492.0      147.7
  493.0      143.3
  494.0      139.1
  495.0      135.0
  496.0      131.1
  497.0      127.2
  498.0      123.3
  499.0      119.3
  500.0      115.1
  501.0      110.8
  502.0      106.0
  503.0      101.0
  504.0      95.8
  505.0      90.7
  506.0      85.7
  507.0      80.9
  508.0      76.4
  509.0      72.3
  510.0      68.5
  511.0      64.9
  512.0      61.6
  513.0      58.3
  514.0      55.0
  515.0      51.8
  516.0      48.6
  517.0      45.5
  518.0      42.5
  519.0      39.6
  520.0      36.9
  521.0      34.5
  522.0      32.2
  523.0      30.0
  524.0      27.9
  525.0      26.1
  526.0      24.4
  527.0      22.8
  528.0      21.5
  529.0      20.3
  530.0      19.3
  531.0      18.5
  532.0      17.8
  533.0      17.1
  534.0      16.6
  535.0      16.2
  536.0      15.9
  537.0      15.6
  538.0      15.4
  539.0      15.2
  540.0      15.1
  541.0      15.1
  542.0      15.1
  543.0      15.2
  544.0      15.4
  545.0      15.7
  546.0      16.0
  547.0      16.5
  548.0      17.0
  549.0      17.5
  550.0      18.2
  551.0      18.8
  552.0      19.5
  553.0      20.1
  554.0      20.7
  555.0      21.3
  556.0      21.7
  557.0      22.0
  558.0      22.2
  559.0      22.2
  560.0      22.0
  561.0      21.7
  562.0      21.3
  563.0      20.9
  564.0      20.3
  565.0      19.5
  566.0      18.8
  567.0      17.9
  568.0      17.0
  569.0      16.1
  570.0      15.2
  571.0      14.4
  572.0      13.5
  573.0      12.6
  574.0      11.7
  575.0      11.0
  576.0      10.3
  577.0      9.7
  578.0      9.1
  579.0      8.6
  580.0      8.1
  581.0      7.7
  582.0      7.3
  583.0      7.1
  584.0      6.9
  585.0      6.8
  586.0      6.6
  587.0      6.5
  588.0      6.4
  589.0      6.4
  590.0      6.3
  591.0      6.3
  592.0      6.2
  593.0      6.1
  594.0      6.1
  595.0      6.1
  596.0      6.1
  597.0      6.1
  598.0      6.1
  599.0      6.1
  600.0      6.1
  601.0      6.1
  602.0      6.1
  603.0      6.1
  604.0      6.1
  605.0      6.1
  606.0      6.1
  607.0      6.1
  608.0      6.1
  609.0      6.1
  610.0      6.1
  611.0      6.1
  612.0      6.1
  613.0      6.1
  614.0      6.1
  615.0      6.1
  616.0      6.1
  617.0      6.1
  618.0      6.1
  619.0      6.1
  620.0      6.1
  621.0      6.0
  622.0      5.9
  623.0      5.9
  624.0      5.9
  625.0      5.9
  626.0      5.9
  627.0      5.9
  628.0      5.9
  629.0      5.9
  630.0      5.9
  631.0      5.9
  632.0      5.9
  633.0      5.9
  634.0      5.9
  635.0      5.9
  636.0      5.9
  637.0      5.9
  638.0      5.9
  639.0      5.9
  640.0      5.9
  641.0      5.8
  642.0      5.8
  643.0      5.8
  644.0      5.8
  645.0      5.8
  646.0      5.9
  647.0      5.9
  648.0      5.9
  649.0      5.9
  650.0      5.9
  651.0      5.9
  652.0      5.9
  653.0      5.9
  654.0      5.9
  655.0      5.9
  656.0      5.9
  657.0      5.9
  658.0      5.9
  659.0      5.8
  660.0      5.9
  661.0      5.9
  662.0      6.0
  663.0      6.1
  664.0      6.1
  665.0      6.1
  666.0      6.2
  667.0      6.3
  668.0      6.3
  669.0      6.4
  670.0      6.5
  671.0      6.6
  672.0      6.7
  673.0      6.8
  674.0      6.9
  675.0      7.0
  676.0      7.1
  677.0      7.3
  678.0      7.4
  679.0      7.6
  680.0      7.8
  681.0      8.0
  682.0      8.1
  683.0      8.3
  684.0      8.6
  685.0      8.8
  686.0      9.0
  687.0      9.1
  688.0      9.3
  689.0      9.5
  690.0      9.8
  691.0      10.0
  692.0      10.3
  693.0      10.5
  694.0      10.7
  695.0      10.8
  696.0      11.0
  697.0      11.2
  698.0      11.4
  699.0      11.5
  700.0      11.7
