仪器类型:WGD-3型组合式多功能光栅光谱仪
样品名称:
操作人:
备注:
保存时间:2025年04月07日  03:07:29 PM
采集模式:0    //0,3--能量   1--透过率   2--吸光度
数据模式:0    //0--波长扫描    1--定点扫描
起始波长(nm):400.0
终止波长(nm):700.0
扫描间隔(nm):1.0
最大值:1000.0
最小值:0.0
增益:2
负高压:3
采集次数:23
数据段数:2
段1:    起点(nm):200.0     终点(nm):220.0
段2:    起点(nm):400.0     终点(nm):700.0


 波长(nm)    数值(e)
  200.0      203.3
  201.0      203.4
  202.0      203.6
  203.0      203.7
  204.0      203.9
  205.0      204.1
  206.0      204.2
  207.0      204.3
  208.0      204.4
  209.0      204.4
  210.0      204.5
  211.0      204.6
  212.0      204.6
  213.0      204.7
  214.0      204.7
  215.0      204.8
  216.0      204.8
  217.0      204.8
  218.0      204.9
  219.0      204.9
  220.0      204.9
  400.0      5.6
  401.0      5.6
  402.0      5.6
  403.0      5.6
  404.0      5.6
  405.0      5.6
  406.0      5.6
  407.0      5.6
  408.0      5.6
  409.0      5.6
  410.0      5.6
  411.0      5.6
  412.0      5.6
  413.0      5.6
  414.0      5.6
  415.0      5.6
  416.0      5.6
  417.0      5.6
  418.0      5.6
  419.0      5.6
  420.0      5.6
  421.0      5.6
  422.0      5.6
  423.0      5.6
  424.0      5.7
  425.0      5.8
  426.0      5.8
  427.0      5.9
  428.0      5.9
  429.0      5.9
  430.0      5.9
  431.0      5.9
  432.0      5.9
  433.0      5.9
  434.0      5.9
  435.0      5.9
  436.0      5.9
  437.0      5.9
  438.0      5.9
  439.0      5.9
  440.0      5.9
  441.0      5.9
  442.0      5.9
  443.0      5.9
  444.0      5.9
  445.0      5.8
  446.0      5.9
  447.0      5.9
  448.0      6.0
  449.0      6.1
  450.0      6.1
  451.0      6.1
  452.0      6.1
  453.0      6.1
  454.0      6.1
  455.0      6.1
  456.0      6.1
  457.0      6.1
  458.0      6.1
  459.0      6.1
  460.0      6.1
  461.0      6.1
  462.0      6.1
  463.0      6.1
  464.0      6.1
  465.0      6.1
  466.0      6.1
  467.0      6.1
  468.0      6.1
  469.0      6.1
  470.0      6.1
  471.0      6.2
  472.0      6.3
  473.0      6.3
  474.0      6.4
  475.0      6.4
  476.0      6.3
  477.0      6.4
  478.0      6.4
  479.0      6.5
  480.0      6.6
  481.0      6.6
  482.0      6.7
  483.0      6.8
  484.0      6.9
  485.0      7.0
  486.0      7.2
  487.0      7.3
  488.0      7.5
  489.0      7.6
  490.0      7.8
  491.0      8.1
  492.0      8.5
  493.0      8.8
  494.0      9.2
  495.0      9.6
  496.0      10.2
  497.0      10.8
  498.0      11.5
  499.0      12.2
  500.0      13.2
  501.0      14.2
  502.0      15.3
  503.0      16.6
  504.0      18.1
  505.0      19.8
  506.0      21.5
  507.0      23.4
  508.0      25.4
  509.0      27.3
  510.0      29.4
  511.0      31.5
  512.0      33.5
  513.0      35.4
  514.0      37.1
  515.0      38.8
  516.0      40.4
  517.0      41.7
  518.0      42.7
  519.0      43.5
  520.0      44.0
  521.0      44.4
  522.0      44.5
  523.0      44.4
  524.0      44.0
  525.0      43.4
  526.0      42.7
  527.0      42.0
  528.0      41.3
  529.0      40.5
  530.0      39.6
  531.0      38.8
  532.0      37.9
  533.0      37.1
  534.0      36.4
  535.0      35.6
  536.0      34.9
  537.0      34.3
  538.0      33.7
  539.0      33.1
  540.0      32.5
  541.0      32.0
  542.0      31.4
  543.0      30.8
  544.0      30.1
  545.0      29.5
  546.0      28.8
  547.0      28.1
  548.0      27.3
  549.0      26.5
  550.0      25.8
  551.0      25.1
  552.0      24.4
  553.0      23.7
  554.0      23.0
  555.0      22.5
  556.0      22.0
  557.0      21.7
  558.0      21.5
  559.0      21.4
  560.0      21.5
  561.0      21.7
  562.0      22.2
  563.0      23.0
  564.0      24.1
  565.0      25.7
  566.0      27.6
  567.0      30.0
  568.0      33.0
  569.0      36.9
  570.0      41.7
  571.0      47.3
  572.0      54.1
  573.0      62.5
  574.0      72.7
  575.0      84.9
  576.0      99.3
  577.0      116.0
  578.0      135.1
  579.0      156.8
  580.0      180.5
  581.0      206.0
  582.0      233.2
  583.0      261.8
  584.0      292.0
  585.0      322.8
  586.0      353.9
  587.0      384.3
  588.0      413.9
  589.0      442.1
  590.0      468.6
  591.0      493.3
  592.0      516.2
  593.0      537.4
  594.0      557.2
  595.0      575.3
  596.0      591.6
  597.0      605.9
  598.0      618.8
  599.0      630.3
  600.0      640.5
  601.0      649.3
  602.0      656.9
  603.0      663.5
  604.0      669.5
  605.0      674.7
  606.0      679.0
  607.0      682.8
  608.0      686.1
  609.0      688.8
  610.0      691.0
  611.0      692.6
  612.0      693.8
  613.0      694.4
  614.0      694.8
  615.0      694.9
  616.0      695.0
  617.0      694.7
  618.0      694.3
  619.0      693.5
  620.0      692.5
  621.0      691.4
  622.0      690.1
  623.0      688.6
  624.0      687.1
  625.0      685.6
  626.0      684.0
  627.0      682.0
  628.0      679.9
  629.0      677.6
  630.0      675.2
  631.0      672.8
  632.0      670.4
  633.0      668.1
  634.0      665.6
  635.0      663.4
  636.0      661.2
  637.0      658.9
  638.0      656.4
  639.0      653.8
  640.0      651.2
  641.0      648.6
  642.0      645.8
  643.0      642.8
  644.0      639.8
  645.0      636.8
  646.0      633.9
  647.0      630.9
  648.0      628.0
  649.0      624.9
  650.0      622.0
  651.0      619.1
  652.0      616.0
  653.0      612.5
  654.0      608.9
  655.0      605.5
  656.0      602.2
  657.0      599.1
  658.0      595.9
  659.0      592.6
  660.0      589.4
  661.0      586.2
  662.0      582.7
  663.0      579.1
  664.0      575.3
  665.0      571.8
  666.0      568.5
  667.0      565.4
  668.0      562.3
  669.0      559.3
  670.0      556.2
  671.0      553.2
  672.0      550.0
  673.0      546.5
  674.0      542.7
  675.0      539.0
  676.0      535.3
  677.0      531.9
  678.0      528.5
  679.0      525.1
  680.0      521.6
  681.0      518.3
  682.0      514.7
  683.0      510.6
  684.0      506.9
  685.0      505.0
  686.0      504.6
  687.0      504.3
  688.0      503.5
  689.0      502.5
  690.0      501.2
  691.0      499.9
  692.0      498.4
  693.0      496.6
  694.0      494.7
  695.0      492.7
  696.0      490.6
  697.0      488.6
  698.0      486.4
  699.0      484.4
  700.0      482.9
