仪器类型:WGD-3型组合式多功能光栅光谱仪
样品名称:
操作人:
备注:
保存时间:2025年04月07日  03:15:16 PM
采集模式:0    //0,3--能量   1--透过率   2--吸光度
数据模式:0    //0--波长扫描    1--定点扫描
起始波长(nm):400.0
终止波长(nm):700.0
扫描间隔(nm):1.0
最大值:1000.0
最小值:0.0
增益:2
负高压:3
采集次数:23
数据段数:2
段1:    起点(nm):200.0     终点(nm):220.0
段2:    起点(nm):400.0     终点(nm):700.0


 波长(nm)    数值(e)
  200.0      203.4
  201.0      203.5
  202.0      203.6
  203.0      203.8
  204.0      203.9
  205.0      204.1
  206.0      204.2
  207.0      204.3
  208.0      204.4
  209.0      204.4
  210.0      204.5
  211.0      204.6
  212.0      204.6
  213.0      204.7
  214.0      204.7
  215.0      204.8
  216.0      204.8
  217.0      204.8
  218.0      204.9
  219.0      204.9
  220.0      204.9
  400.0      5.4
  401.0      5.4
  402.0      5.4
  403.0      5.4
  404.0      5.4
  405.0      5.4
  406.0      5.4
  407.0      5.4
  408.0      5.4
  409.0      5.4
  410.0      5.4
  411.0      5.4
  412.0      5.4
  413.0      5.4
  414.0      5.4
  415.0      5.4
  416.0      5.4
  417.0      5.4
  418.0      5.4
  419.0      5.3
  420.0      5.4
  421.0      5.5
  422.0      5.6
  423.0      5.6
  424.0      5.6
  425.0      5.6
  426.0      5.6
  427.0      5.6
  428.0      5.6
  429.0      5.6
  430.0      5.6
  431.0      5.6
  432.0      5.6
  433.0      5.6
  434.0      5.6
  435.0      5.6
  436.0      5.6
  437.0      5.6
  438.0      5.6
  439.0      5.6
  440.0      5.6
  441.0      5.6
  442.0      5.6
  443.0      5.6
  444.0      5.6
  445.0      5.6
  446.0      5.6
  447.0      5.6
  448.0      5.6
  449.0      5.6
  450.0      5.6
  451.0      5.6
  452.0      5.6
  453.0      5.6
  454.0      5.6
  455.0      5.6
  456.0      5.6
  457.0      5.6
  458.0      5.6
  459.0      5.6
  460.0      5.6
  461.0      5.6
  462.0      5.6
  463.0      5.6
  464.0      5.6
  465.0      5.6
  466.0      5.6
  467.0      5.6
  468.0      5.6
  469.0      5.7
  470.0      5.8
  471.0      5.8
  472.0      5.9
  473.0      5.9
  474.0      5.9
  475.0      5.9
  476.0      5.9
  477.0      5.9
  478.0      5.8
  479.0      5.9
  480.0      5.9
  481.0      6.0
  482.0      6.1
  483.0      6.1
  484.0      6.2
  485.0      6.3
  486.0      6.3
  487.0      6.4
  488.0      6.5
  489.0      6.6
  490.0      6.8
  491.0      6.9
  492.0      7.1
  493.0      7.3
  494.0      7.6
  495.0      7.9
  496.0      8.2
  497.0      8.6
  498.0      9.0
  499.0      9.5
  500.0      10.1
  501.0      10.7
  502.0      11.4
  503.0      12.3
  504.0      13.2
  505.0      14.3
  506.0      15.4
  507.0      16.6
  508.0      17.9
  509.0      19.2
  510.0      20.5
  511.0      21.7
  512.0      23.0
  513.0      24.2
  514.0      25.4
  515.0      26.5
  516.0      27.4
  517.0      28.3
  518.0      28.9
  519.0      29.5
  520.0      29.8
  521.0      30.0
  522.0      30.0
  523.0      29.8
  524.0      29.6
  525.0      29.3
  526.0      28.8
  527.0      28.3
  528.0      27.8
  529.0      27.2
  530.0      26.6
  531.0      26.0
  532.0      25.4
  533.0      24.9
  534.0      24.4
  535.0      23.9
  536.0      23.4
  537.0      23.0
  538.0      22.5
  539.0      22.1
  540.0      21.7
  541.0      21.3
  542.0      20.9
  543.0      20.5
  544.0      20.0
  545.0      19.5
  546.0      19.1
  547.0      18.6
  548.0      18.1
  549.0      17.6
  550.0      17.1
  551.0      16.6
  552.0      16.1
  553.0      15.6
  554.0      15.2
  555.0      14.8
  556.0      14.5
  557.0      14.2
  558.0      14.1
  559.0      14.0
  560.0      14.1
  561.0      14.2
  562.0      14.4
  563.0      14.8
  564.0      15.3
  565.0      16.0
  566.0      16.9
  567.0      18.1
  568.0      19.8
  569.0      21.7
  570.0      24.1
  571.0      26.9
  572.0      30.2
  573.0      34.2
  574.0      39.2
  575.0      45.1
  576.0      52.0
  577.0      59.6
  578.0      68.4
  579.0      78.1
  580.0      88.5
  581.0      99.3
  582.0      110.4
  583.0      122.1
  584.0      134.0
  585.0      145.9
  586.0      157.2
  587.0      168.0
  588.0      177.9
  589.0      186.9
  590.0      194.8
  591.0      201.4
  592.0      207.0
  593.0      211.6
  594.0      215.3
  595.0      218.1
  596.0      220.0
  597.0      221.3
  598.0      221.7
  599.0      221.4
  600.0      220.6
  601.0      219.3
  602.0      217.6
  603.0      215.4
  604.0      212.8
  605.0      209.9
  606.0      206.8
  607.0      203.5
  608.0      200.0
  609.0      196.3
  610.0      192.5
  611.0      188.8
  612.0      184.9
  613.0      180.8
  614.0      176.6
  615.0      172.4
  616.0      168.3
  617.0      164.1
  618.0      159.9
  619.0      155.8
  620.0      151.6
  621.0      147.5
  622.0      143.4
  623.0      139.4
  624.0      135.4
  625.0      131.5
  626.0      127.6
  627.0      123.8
  628.0      119.9
  629.0      116.2
  630.0      112.5
  631.0      108.9
  632.0      105.5
  633.0      102.1
  634.0      98.8
  635.0      95.6
  636.0      92.5
  637.0      89.5
  638.0      86.5
  639.0      83.6
  640.0      80.7
  641.0      77.9
  642.0      75.3
  643.0      72.7
  644.0      70.0
  645.0      67.4
  646.0      65.0
  647.0      62.8
  648.0      60.5
  649.0      58.3
  650.0      56.2
  651.0      54.2
  652.0      52.2
  653.0      50.3
  654.0      48.4
  655.0      46.6
  656.0      44.8
  657.0      43.2
  658.0      41.5
  659.0      40.0
  660.0      38.5
  661.0      37.1
  662.0      35.6
  663.0      34.2
  664.0      33.0
  665.0      31.7
  666.0      30.5
  667.0      29.4
  668.0      28.3
  669.0      27.3
  670.0      26.3
  671.0      25.3
  672.0      24.4
  673.0      23.5
  674.0      22.6
  675.0      21.8
  676.0      21.0
  677.0      20.3
  678.0      19.5
  679.0      18.8
  680.0      18.1
  681.0      17.5
  682.0      16.9
  683.0      16.4
  684.0      15.9
  685.0      15.4
  686.0      14.9
  687.0      14.5
  688.0      14.1
  689.0      13.6
  690.0      13.3
  691.0      12.9
  692.0      12.6
  693.0      12.3
  694.0      12.0
  695.0      11.6
  696.0      11.3
  697.0      11.0
  698.0      10.7
  699.0      10.5
  700.0      10.3
