仪器类型:WGD-3型组合式多功能光栅光谱仪
样品名称:
操作人:
备注:
保存时间:2025年04月07日  03:11:51 PM
采集模式:0    //0,3--能量   1--透过率   2--吸光度
数据模式:0    //0--波长扫描    1--定点扫描
起始波长(nm):400.0
终止波长(nm):700.0
扫描间隔(nm):1.0
最大值:1000.0
最小值:0.0
增益:2
负高压:3
采集次数:23
数据段数:2
段1:    起点(nm):200.0     终点(nm):220.0
段2:    起点(nm):400.0     终点(nm):700.0


 波长(nm)    数值(e)
  200.0      203.4
  201.0      203.5
  202.0      203.6
  203.0      203.7
  204.0      203.9
  205.0      204.1
  206.0      204.2
  207.0      204.3
  208.0      204.4
  209.0      204.4
  210.0      204.5
  211.0      204.6
  212.0      204.6
  213.0      204.7
  214.0      204.7
  215.0      204.8
  216.0      204.8
  217.0      204.8
  218.0      204.9
  219.0      204.9
  220.0      204.9
  400.0      6.1
  401.0      6.1
  402.0      6.1
  403.0      6.1
  404.0      6.1
  405.0      6.1
  406.0      6.1
  407.0      6.1
  408.0      6.1
  409.0      6.1
  410.0      6.1
  411.0      6.1
  412.0      6.2
  413.0      6.3
  414.0      6.3
  415.0      6.4
  416.0      6.4
  417.0      6.5
  418.0      6.6
  419.0      6.9
  420.0      7.3
  421.0      7.8
  422.0      8.8
  423.0      10.0
  424.0      12.0
  425.0      14.5
  426.0      17.7
  427.0      21.8
  428.0      26.8
  429.0      32.7
  430.0      39.5
  431.0      47.0
  432.0      55.3
  433.0      64.4
  434.0      74.4
  435.0      84.9
  436.0      95.9
  437.0      107.2
  438.0      118.7
  439.0      130.3
  440.0      141.9
  441.0      153.1
  442.0      164.1
  443.0      174.8
  444.0      185.4
  445.0      195.7
  446.0      205.6
  447.0      215.0
  448.0      224.3
  449.0      233.1
  450.0      241.5
  451.0      249.4
  452.0      256.9
  453.0      264.1
  454.0      271.3
  455.0      278.1
  456.0      284.6
  457.0      291.0
  458.0      297.4
  459.0      303.8
  460.0      310.2
  461.0      316.3
  462.0      322.3
  463.0      328.5
  464.0      334.8
  465.0      341.2
  466.0      347.7
  467.0      354.4
  468.0      361.1
  469.0      368.0
  470.0      374.9
  471.0      381.7
  472.0      388.5
  473.0      395.5
  474.0      402.7
  475.0      409.9
  476.0      417.1
  477.0      424.3
  478.0      431.5
  479.0      438.7
  480.0      445.8
  481.0      452.6
  482.0      459.3
  483.0      466.1
  484.0      473.0
  485.0      479.9
  486.0      486.8
  487.0      493.7
  488.0      500.4
  489.0      507.0
  490.0      513.5
  491.0      519.8
  492.0      526.0
  493.0      532.1
  494.0      538.1
  495.0      544.1
  496.0      550.0
  497.0      556.0
  498.0      561.9
  499.0      567.7
  500.0      573.4
  501.0      578.9
  502.0      584.4
  503.0      589.6
  504.0      594.8
  505.0      600.0
  506.0      605.2
  507.0      610.4
  508.0      615.5
  509.0      620.5
  510.0      625.4
  511.0      630.0
  512.0      634.6
  513.0      639.2
  514.0      643.6
  515.0      648.1
  516.0      652.6
  517.0      657.1
  518.0      661.5
  519.0      665.6
  520.0      669.7
  521.0      673.8
  522.0      677.6
  523.0      681.1
  524.0      684.4
  525.0      687.7
  526.0      691.1
  527.0      694.5
  528.0      697.9
  529.0      701.2
  530.0      704.5
  531.0      707.7
  532.0      710.8
  533.0      713.5
  534.0      716.2
  535.0      718.8
  536.0      721.4
  537.0      724.1
  538.0      726.7
  539.0      729.1
  540.0      731.2
  541.0      733.3
  542.0      735.3
  543.0      737.2
  544.0      739.2
  545.0      741.1
  546.0      743.2
  547.0      745.1
  548.0      747.0
  549.0      748.9
  550.0      750.7
  551.0      752.6
  552.0      754.4
  553.0      756.2
  554.0      757.7
  555.0      759.4
  556.0      761.0
  557.0      762.4
  558.0      763.1
  559.0      763.6
  560.0      763.9
  561.0      764.5
  562.0      765.1
  563.0      765.7
  564.0      766.2
  565.0      766.8
  566.0      767.4
  567.0      768.2
  568.0      768.8
  569.0      769.4
  570.0      770.0
  571.0      770.4
  572.0      770.7
  573.0      770.9
  574.0      771.2
  575.0      771.5
  576.0      772.0
  577.0      772.5
  578.0      772.8
  579.0      772.8
  580.0      772.6
  581.0      772.5
  582.0      772.4
  583.0      772.2
  584.0      772.0
  585.0      771.9
  586.0      771.9
  587.0      771.8
  588.0      771.6
  589.0      771.0
  590.0      770.4
  591.0      769.6
  592.0      768.7
  593.0      767.7
  594.0      766.5
  595.0      765.4
  596.0      764.4
  597.0      763.4
  598.0      762.3
  599.0      761.1
  600.0      759.9
  601.0      758.7
  602.0      757.5
  603.0      756.1
  604.0      754.7
  605.0      753.3
  606.0      752.1
  607.0      751.1
  608.0      750.2
  609.0      749.2
  610.0      747.8
  611.0      746.3
  612.0      744.6
  613.0      742.7
  614.0      740.5
  615.0      738.4
  616.0      736.4
  617.0      734.8
  618.0      733.0
  619.0      731.2
  620.0      728.9
  621.0      726.5
  622.0      724.0
  623.0      721.5
  624.0      719.0
  625.0      716.7
  626.0      714.4
  627.0      711.9
  628.0      709.0
  629.0      706.1
  630.0      703.0
  631.0      700.1
  632.0      697.1
  633.0      694.2
  634.0      691.3
  635.0      688.9
  636.0      686.5
  637.0      684.0
  638.0      681.2
  639.0      678.3
  640.0      675.2
  641.0      672.1
  642.0      668.9
  643.0      665.5
  644.0      661.9
  645.0      658.5
  646.0      655.2
  647.0      651.9
  648.0      648.4
  649.0      644.8
  650.0      641.4
  651.0      638.3
  652.0      635.0
  653.0      631.3
  654.0      627.5
  655.0      623.8
  656.0      620.3
  657.0      616.9
  658.0      613.4
  659.0      609.9
  660.0      606.5
  661.0      603.1
  662.0      599.5
  663.0      595.7
  664.0      591.9
  665.0      588.3
  666.0      584.9
  667.0      581.7
  668.0      578.5
  669.0      575.3
  670.0      572.1
  671.0      568.9
  672.0      565.6
  673.0      562.2
  674.0      558.4
  675.0      554.5
  676.0      550.8
  677.0      547.4
  678.0      544.0
  679.0      540.6
  680.0      537.2
  681.0      533.7
  682.0      529.9
  683.0      525.6
  684.0      521.8
  685.0      519.9
  686.0      519.5
  687.0      519.2
  688.0      518.6
  689.0      517.7
  690.0      516.4
  691.0      514.9
  692.0      513.3
  693.0      511.5
  694.0      509.5
  695.0      507.5
  696.0      505.4
  697.0      503.3
  698.0      501.0
  699.0      498.9
  700.0      497.5
